Time [s]	Current [nA]
0.000	5.624
0.934	39.289
1.934	40.696
2.934	35.796
3.934	39.196
4.934	38.796
5.935	38.896
6.935	40.496
7.935	36.696
8.934	39.636
9.934	38.896
10.934	38.596
11.934	40.296
12.934	36.996
13.934	38.796
14.934	38.996
16.001	39.958
16.999	39.074
17.935	39.205
18.995	38.298
19.935	38.400
20.935	38.696
21.935	38.896
22.935	40.196
23.935	39.396
24.935	36.496
25.936	39.296
26.935	39.035
27.935	39.196
28.935	40.696
29.935	37.096
30.935	39.996
31.935	38.796
32.935	38.896
33.935	35.796
34.935	40.496
35.936	41.096
36.936	39.496
37.991	37.058
38.936	37.668
39.936	40.396
40.936	36.896
41.936	39.596
42.936	38.696
43.935	38.735
44.935	39.196
45.936	37.596
46.936	40.296
47.936	39.996
48.936	38.996
49.936	39.096
50.936	36.996
51.936	40.196
52.936	39.096
53.936	38.796
54.936	38.596
55.937	38.596
56.937	36.796
57.937	40.296
58.937	39.296
59.937	38.596
60.937	38.596
61.936	36.733
62.936	39.696
63.936	39.096
64.936	39.196
65.937	38.296
66.937	38.596
67.937	36.796
68.937	40.196
69.937	38.796
70.937	38.296
71.937	38.796
72.937	36.696
73.937	39.096
74.937	39.896
75.938	35.996
76.938	38.596
77.938	38.796
78.937	40.236
79.999	37.849
80.937	38.163
81.937	36.296
82.937	35.696
83.937	35.896
84.937	35.896
85.938	33.897
86.938	35.496
87.938	35.196
88.938	36.096
89.938	37.696
90.938	33.897
91.938	35.496
92.938	35.696
93.938	36.496
94.938	36.196
95.939	34.497
96.995	35.034
97.999	35.853
98.938	37.696
99.938	35.796
100.938	33.997
101.938	37.496
102.938	36.596
103.938	36.596
104.938	36.096
105.939	35.796
106.939	34.497
107.939	37.996
108.939	36.496
109.939	24.997
110.939	15.098
111.939	22.598
112.939	32.697
113.938	36.633
114.999	36.283
115.939	40.252
116.939	36.796
117.939	34.897
118.939	37.896
119.939	36.796
120.939	33.497
121.939	36.796
122.939	38.496
123.939	37.696
124.939	34.797
125.940	37.496
126.940	36.996
127.940	37.296
128.940	38.596
129.940	35.096
130.939	37.634
131.939	37.096
132.939	36.796
134.023	22.230
