Time [s]	Current [nA]
0.000	1.754
1.000	36.900
2.000	36.800
3.000	36.900
4.000	35.300
5.000	38.200
5.999	37.437
6.999	36.700
7.999	36.700
8.999	38.200
9.999	34.900
10.999	37.400
11.999	37.700
12.999	37.300
13.999	33.600
14.999	38.200
16.058	36.449
17.073	37.044
17.999	36.177
18.999	36.900
19.999	38.400
20.999	37.500
22.054	35.829
22.999	35.767
23.998	37.037
24.998	36.900
25.998	38.200
26.998	35.600
27.998	37.100
29.055	37.938
29.998	35.313
30.998	37.100
31.998	37.600
32.998	35.300
33.998	37.200
34.998	36.600
35.998	36.700
36.998	37.900
37.998	38.100
38.998	34.000
39.998	36.000
40.997	36.537
42.078	37.558
42.997	37.214
44.053	36.174
45.053	37.100
45.997	35.275
46.997	36.800
47.997	37.800
48.997	38.200
49.997	33.700
50.997	36.900
51.997	36.300
52.997	36.300
53.997	38.000
54.997	34.600
55.997	36.700
56.997	36.800
57.997	36.700
58.996	37.538
59.996	37.700
60.996	33.600
61.996	36.700
62.996	36.200
63.996	36.300
64.996	35.600
65.996	34.700
66.996	30.900
67.996	32.900
68.996	32.400
69.996	34.500
70.996	33.700
71.996	31.700
73.057	34.024
73.996	32.055
74.996	32.800
75.995	34.935
76.995	35.200
77.995	31.000
78.995	33.500
79.995	33.600
80.995	28.300
81.995	12.000
82.995	17.700
83.995	25.900
84.995	31.400
85.995	34.100
87.057	37.100
87.995	34.435
88.995	31.400
89.995	33.600
90.995	34.000
91.995	34.300
92.995	35.300
94.049	33.776
94.994	33.439
95.994	34.600
96.994	35.200
98.049	34.408
98.994	38.201
99.994	32.100
100.994	34.900
102.052	35.444
102.994	33.333
103.994	36.600
104.994	36.500
105.994	32.400
106.994	35.000
107.994	35.300
108.994	36.400
109.994	36.100
110.993	32.633
111.993	35.400
112.993	35.200
113.993	35.500
114.993	36.900
115.993	36.700
117.053	34.623
117.993	34.255
118.993	35.600
119.993	36.800
120.993	36.000
121.993	33.800
122.993	35.300
123.993	35.600
124.993	35.700
125.993	36.900
127.052	35.411
127.993	35.175
128.992	35.836
129.992	36.000
130.992	35.800
131.992	37.100
132.992	34.200
133.992	35.900
135.048	37.121
135.992	34.852
136.992	37.300
137.992	37.500
138.992	33.200
139.992	35.800
140.992	35.900
142.088	29.927
