Time [s]	Current [nA]
0.000	38.796
0.999	39.636
1.999	38.896
2.999	36.296
3.999	40.196
4.999	35.196
6.062	40.109
7.000	37.736
8.000	41.496
9.000	37.096
10.000	39.596
11.000	34.797
12.000	37.896
13.000	40.896
14.000	36.196
15.000	39.996
16.001	34.996
17.066	32.203
18.000	10.813
19.000	16.398
20.000	24.398
21.000	30.797
22.000	30.497
23.000	40.696
24.000	39.596
25.000	37.596
26.001	40.796
27.066	37.367
28.001	37.216
29.001	38.796
30.001	39.496
31.001	41.196
32.001	41.396
33.001	36.796
34.001	38.596
35.001	38.696
36.001	40.236
37.001	39.296
38.001	36.996
39.001	38.996
40.001	38.796
41.056	39.238
42.063	38.824
43.001	36.990
44.001	33.197
45.001	38.896
46.002	35.097
47.085	33.699
48.002	35.329
49.002	36.296
50.002	32.097
51.002	34.497
52.002	35.496
53.001	36.933
54.001	37.096
55.001	31.897
56.002	34.897
57.002	34.996
58.002	34.497
59.002	34.997
60.064	32.200
61.002	31.553
62.002	33.197
63.002	33.097
64.061	32.197
65.002	32.940
66.003	31.897
67.003	31.397
68.003	31.997
69.003	33.197
70.003	34.097
71.002	31.128
72.002	31.697
73.002	31.197
74.002	32.597
75.002	30.697
76.003	32.897
77.003	33.497
78.003	29.297
79.003	31.297
80.003	34.397
81.003	30.897
82.003	32.797
83.062	30.214
84.003	33.684
85.062	30.054
86.004	30.995
87.070	30.860
88.003	32.687
89.068	32.109
90.003	30.050
91.003	30.297
92.065	32.859
93.003	31.234
94.003	27.597
95.062	30.810
96.004	29.721
97.004	30.497
98.004	32.097
99.004	32.297
100.004	28.797
101.004	34.097
102.004	31.097
103.004	29.897
104.004	31.397
105.004	27.197
106.004	31.929
107.004	31.097
108.004	31.297
109.004	32.197
110.004	32.797
111.004	34.097
112.004	42.196
113.004	35.596
114.004	40.196
115.004	40.296
116.009	39.040
117.005	35.840
118.005	38.796
119.005	38.596
120.005	40.296
121.005	40.296
122.005	35.596
123.004	38.635
124.004	37.996
125.066	40.995
126.005	36.525
127.063	37.614
128.067	39.339
129.005	36.457
130.005	37.096
131.005	39.196
132.005	39.796
133.005	36.096
134.005	38.396
135.067	38.450
136.006	37.376
137.006	38.896
138.006	37.696
139.006	33.997
140.006	36.696
141.005	36.533
142.005	37.596
143.005	4.200
