Time [s]	Current [nA]
0.000	32.920
0.943	39.763
1.943	39.096
2.943	35.496
3.943	37.896
4.943	36.996
5.944	37.296
6.944	37.596
7.944	37.196
8.944	35.596
9.944	37.896
10.944	36.596
11.944	36.796
12.998	36.998
13.944	36.888
14.944	37.496
15.944	36.533
16.944	36.896
17.944	36.696
18.944	34.996
19.944	37.696
20.944	37.496
21.944	36.396
22.944	36.396
23.944	37.696
24.944	35.296
25.945	37.996
26.945	36.596
27.945	36.096
28.945	36.096
29.945	37.796
30.945	35.097
31.945	37.096
32.945	35.196
33.944	35.832
34.944	34.097
35.945	37.096
36.945	36.196
37.945	35.996
38.945	35.696
39.945	35.396
40.947	36.224
41.945	33.464
43.003	33.929
43.945	37.257
44.945	35.796
45.946	33.497
46.946	35.396
47.946	36.696
48.946	35.596
49.946	34.597
50.945	34.931
51.945	36.096
52.945	32.997
53.945	35.696
54.945	35.096
55.946	35.096
56.946	36.696
57.946	36.096
58.946	33.397
59.946	35.596
60.946	35.097
61.946	35.496
62.946	33.297
63.946	36.196
64.946	35.896
65.947	35.496
67.002	32.603
67.947	36.716
68.946	34.331
69.946	36.196
70.946	17.898
71.946	16.598
72.946	23.498
73.946	29.197
75.012	31.358
75.947	31.655
76.947	34.297
77.947	34.897
78.947	34.397
79.947	35.196
80.947	32.297
81.947	34.597
82.947	32.997
83.947	33.597
85.006	33.424
85.947	33.720
86.947	35.796
87.947	35.496
88.947	34.597
89.947	35.296
90.947	35.596
91.947	33.097
92.947	35.396
93.947	35.196
94.947	34.597
95.948	35.496
96.948	30.897
97.948	35.896
98.948	34.197
99.948	33.397
101.004	32.478
102.007	35.590
102.948	35.278
103.947	35.332
104.947	34.797
105.948	33.997
106.948	35.996
107.948	31.997
109.003	35.352
110.005	36.024
111.007	34.527
111.948	37.191
112.948	35.996
114.076	14.360
