Time [s]	Current [nA]
0.000	34.297
0.934	35.542
1.934	36.996
2.934	36.396
3.999	35.865
4.934	36.360
5.997	34.272
6.935	39.015
7.935	36.196
8.994	35.124
9.993	34.631
11.020	39.042
11.935	35.843
12.935	36.496
13.935	33.897
14.934	38.034
15.935	34.897
16.935	36.796
17.935	36.296
18.935	36.496
19.935	37.096
20.935	33.097
22.001	39.020
22.935	35.007
23.935	36.396
24.935	36.396
25.996	32.827
27.003	15.093
27.936	17.147
28.936	23.598
29.936	29.397
30.936	29.597
31.935	35.732
32.999	36.932
33.935	35.787
34.935	36.696
36.001	38.212
36.936	37.109
37.936	35.296
38.936	37.096
39.936	37.096
40.936	36.496
41.936	36.996
42.998	35.872
43.936	36.564
44.936	37.296
45.999	34.836
46.937	39.548
47.937	34.797
48.936	38.234
50.020	37.542
50.936	35.695
51.936	35.996
52.936	36.596
53.936	34.597
54.936	37.996
55.937	36.696
56.937	36.096
57.937	36.896
58.937	34.797
59.937	37.296
60.937	36.896
61.937	37.496
62.937	36.596
63.937	36.496
64.989	36.213
65.938	37.022
66.937	38.034
67.999	34.272
68.937	39.015
69.937	34.297
70.937	36.996
71.937	38.196
72.937	37.296
73.937	36.996
74.937	37.096
75.938	34.897
76.938	38.496
77.938	33.297
78.938	36.896
80.003	37.743
80.938	36.788
81.938	37.296
82.938	35.896
83.937	36.633
84.937	36.296
85.938	36.296
86.938	37.496
87.938	34.597
88.938	36.896
89.938	36.396
90.938	37.096
91.938	37.696
92.938	35.097
93.938	37.896
94.938	37.596
95.939	36.996
97.001	34.836
97.939	37.523
98.996	36.704
99.939	40.293
100.939	37.196
101.938	37.534
102.999	35.152
103.938	37.376
104.938	38.296
105.939	37.496
106.939	37.496
107.939	34.197
108.939	37.896
109.939	38.096
110.939	14.499
